Angle,Light Intensity
0,970
15,912
30,728
45,480
60,237
75,53
90,5
105,85
120,271
135,527
150,758
165,942
180,1036
195,970
210,752
225,484
240,226
255,57
270,4
285,87
300,280
315,528
330,765
345,908
360,950
